#  Created by Sandify
#  https://sandify.org
#  Version: 0.2.4
#
#  Machine type: Polar
#    Max radius (mm): 150
#    Start point: none
#    End point: none
#  Content type: shape
#  Layer:
#    Shape: Circle
#    Name: point
#    Number of lobes: 1
#    Direction: clockwise
#    Visible: true
#    Initial width: 7
#    Initial height: 7
#    X offset: 2
#    Y offset: 2
#    Rotate (degrees): 0
#    Reverse path: true
#    Number of loops: 20
#    When transforming shape: smear
#    Scale: true
#      Scale (+/-): 100
#      Scale by: constant
#    Spin: false
#    Track: false
#    Fine tuning:
#      Connect to next layer: line
#      Draw portion of path (%): 100
#      Backtrack at end (%): 0
#      Rotate starting point (%): 0
#  Reverse export path: false
#
# File name: 'circle'
#

1.60580 0.89316
1.61923 0.89268
1.63267 0.89237
1.64612 0.89222
1.65427 0.89220
1.66771 0.89172
1.68117 0.89141
1.69463 0.89125
1.70276 0.89123
1.71622 0.89074
1.72969 0.89042
1.74316 0.89025
1.75130 0.89023
1.76477 0.88973
1.77825 0.88940
1.79175 0.88923
1.79987 0.88920
1.81335 0.88870
1.82685 0.88836
1.84036 0.88818
1.84847 0.88816
1.86197 0.88765
1.87549 0.88731
1.88901 0.88713
1.89711 0.88709
1.91063 0.88658
1.92416 0.88623
1.93770 0.88604
1.94580 0.88601
1.95933 0.88549
1.97288 0.88514
1.98644 0.88494
1.99453 0.88491
2.00808 0.88439
2.02164 0.88403
2.03522 0.88383
2.04330 0.88379
2.05687 0.88327
2.07045 0.88291
2.08404 0.88271
2.09211 0.88267
2.10569 0.88214
2.11929 0.88177
2.13290 0.88157
2.14096 0.88153
2.15457 0.88100
2.16818 0.88063
2.18181 0.88043
2.18986 0.88038
2.20349 0.87985
2.21712 0.87948
2.23076 0.87928
2.23881 0.87923
2.25245 0.87870
2.26610 0.87833
2.27976 0.87812
2.28780 0.87807
2.30146 0.87754
2.31513 0.87717
2.32881 0.87696
2.33684 0.87691
2.35052 0.87638
2.36420 0.87601
2.37790 0.87580
2.38593 0.87575
2.39962 0.87522
2.41333 0.87485
2.42704 0.87464
2.43506 0.87459
2.44877 0.87406
2.46250 0.87369
2.47623 0.87348
2.48424 0.87344
2.49797 0.87290
2.51171 0.87253
2.52546 0.87233
2.53346 0.87229
2.54721 0.87175
2.56097 0.87139
2.57474 0.87118
2.58273 0.87114
2.59650 0.87061
2.61028 0.87025
2.62407 0.87004
2.63205 0.87000
2.64584 0.86948
2.65963 0.86912
2.67344 0.86892
2.68141 0.86888
2.69522 0.86836
2.70903 0.86800
2.72286 0.86781
2.73083 0.86777
2.74465 0.86725
2.75848 0.86690
2.77232 0.86671
2.78028 0.86668
2.79412 0.86616
2.80797 0.86581
2.82183 0.86563
2.82978 0.86560
2.84363 0.86509
2.85750 0.86474
2.87138 0.86456
2.87932 0.86454
2.89319 0.86403
2.90708 0.86370
2.92097 0.86352
2.92890 0.86350
2.94279 0.86300
2.95669 0.86267
2.97060 0.86250
2.97852 0.86248
2.99243 0.86199
3.00635 0.86166
3.02027 0.86150
3.02819 0.86149
3.04211 0.86100
3.05604 0.86069
3.06999 0.86054
3.07789 0.86053
3.09183 0.86005
3.10578 0.85974
3.11974 0.85959
3.12763 0.85958
3.14159 0.85911
3.15555 0.85881
3.16952 0.85867
3.17740 0.85867
3.19137 0.85821
3.20535 0.85792
3.21934 0.85779
3.22721 0.85779
3.24120 0.85734
3.25519 0.85706
3.26919 0.85694
3.27706 0.85695
3.29106 0.85650
3.30507 0.85623
3.31908 0.85612
3.32693 0.85613
3.34094 0.85570
3.35496 0.85543
3.36899 0.85533
3.37683 0.85535
3.39085 0.85492
3.40489 0.85467
3.41893 0.85458
3.42676 0.85461
3.44079 0.85419
3.45484 0.85394
3.46889 0.85386
3.47670 0.85389
3.49075 0.85349
3.50481 0.85325
3.51888 0.85318
3.52668 0.85322
3.54074 0.85283
3.55481 0.85260
3.56888 0.85255
3.57667 0.85259
3.59074 0.85221
3.60482 0.85199
3.61891 0.85195
3.62669 0.85200
3.64077 0.85162
3.65486 0.85142
3.66895 0.85138
3.67671 0.85144
3.69080 0.85108
3.70490 0.85089
3.71900 0.85086
3.72675 0.85092
3.74085 0.85057
3.75496 0.85040
3.76907 0.85039
3.77680 0.85045
3.79091 0.85011
3.80502 0.84995
3.81914 0.84995
3.82686 0.85002
3.84097 0.84969
3.85510 0.84954
3.86922 0.84955
3.87692 0.84963
3.89105 0.84931
3.90518 0.84917
3.91931 0.84920
3.92699 0.84928
3.94112 0.84898
3.95525 0.84885
3.96939 0.84888
3.97706 0.84897
3.99119 0.84868
4.00533 0.84856
4.01947 0.84861
4.02713 0.84871
4.04126 0.84843
4.05541 0.84832
4.06955 0.84838
4.07719 0.84848
4.09133 0.84821
4.10548 0.84812
4.11963 0.84819
4.12724 0.84830
4.14139 0.84805
4.15554 0.84796
4.16969 0.84804
4.17729 0.84816
4.19144 0.84791
4.20559 0.84784
4.21974 0.84793
4.22733 0.84806
4.24147 0.84782
4.25563 0.84776
4.26978 0.84787
4.27734 0.84799
4.29149 0.84777
4.30565 0.84772
4.31980 0.84784
4.32735 0.84797
4.34150 0.84776
4.35566 0.84772
4.36981 0.84785
4.37733 0.84799
4.39148 0.84779
4.40564 0.84776
4.41979 0.84790
4.42730 0.84804
4.44145 0.84785
4.45560 0.84783
4.46975 0.84798
4.47724 0.84813
4.49139 0.84795
4.50554 0.84794
4.51969 0.84810
4.52716 0.84825
4.54130 0.84808
4.55545 0.84808
4.56960 0.84826
4.57704 0.84841
4.59119 0.84825
4.60533 0.84826
4.61948 0.84844
4.62690 0.84861
4.64104 0.84846
4.65519 0.84848
4.66933 0.84867
4.67673 0.84883
4.69087 0.84869
4.70500 0.84872
4.71914 0.84891
4.72652 0.84908
4.74066 0.84895
4.75479 0.84899
4.76892 0.84920
4.77628 0.84937
4.79041 0.84924
4.80454 0.84929
4.81867 0.84950
4.82601 0.84968
4.84013 0.84956
4.85425 0.84961
4.86837 0.84984
4.87569 0.85002
4.88981 0.84991
4.90393 0.84996
4.91804 0.85019
4.92533 0.85038
4.93945 0.85027
4.95356 0.85034
4.96767 0.85057
4.97494 0.85076
4.98904 0.85066
5.00315 0.85073
5.01725 0.85097
5.02450 0.85116
5.03860 0.85107
5.05270 0.85115
5.06679 0.85139
5.07402 0.85159
5.08811 0.85150
5.10220 0.85158
5.11629 0.85183
5.12349 0.85203
5.13758 0.85195
5.15166 0.85203
5.16574 0.85229
5.17292 0.85248
5.18700 0.85240
5.20107 0.85249
5.21515 0.85275
5.22231 0.85295
5.23638 0.85287
5.25045 0.85296
5.26451 0.85323
5.27164 0.85342
5.28570 0.85335
5.29976 0.85345
5.31382 0.85371
5.32093 0.85391
5.33499 0.85384
5.34904 0.85394
5.36309 0.85421
5.37017 0.85441
5.38422 0.85434
5.39826 0.85444
5.41230 0.85471
5.41937 0.85491
5.43341 0.85484
5.44744 0.85495
5.46147 0.85522
5.46852 0.85542
5.48254 0.85535
5.49657 0.85545
5.51059 0.85572
5.51762 0.85592
5.53164 0.85585
5.54566 0.85595
5.55967 0.85622
5.56667 0.85642
5.58068 0.85636
5.59470 0.85646
5.60870 0.85673
5.61567 0.85692
5.62968 0.85686
5.64368 0.85696
5.65768 0.85723
5.66463 0.85742
5.67863 0.85735
5.69262 0.85745
5.70661 0.85771
5.71354 0.85791
5.72752 0.85784
5.74151 0.85793
5.75549 0.85820
5.76240 0.85839
5.77639 0.85832
5.79036 0.85841
5.80434 0.85867
5.81122 0.85886
5.82520 0.85878
5.83917 0.85887
5.85314 0.85913
5.86000 0.85932
5.87396 0.85924
5.88793 0.85932
5.90188 0.85958
5.90872 0.85976
5.92268 0.85968
5.93664 0.85976
5.95059 0.86001
5.95741 0.86019
5.97136 0.86010
5.98531 0.86017
5.99926 0.86042
6.00605 0.86060
6.02000 0.86050
6.03394 0.86057
6.04788 0.86081
6.05465 0.86099
6.06859 0.86089
6.08253 0.86095
6.09646 0.86118
6.10322 0.86136
6.11715 0.86125
6.13108 0.86131
6.14501 0.86153
6.15174 0.86170
6.16567 0.86159
6.17960 0.86164
6.19352 0.86186
6.20023 0.86202
6.21415 0.86190
6.22807 0.86194
6.24199 0.86216
6.24868 0.86232
6.26260 0.86219
6.27651 0.86222
6.29043 0.86243
6.29710 0.86258
6.31101 0.86245
6.32492 0.86247
6.33883 0.86267
6.34548 0.86282
6.35939 0.86268
6.37330 0.86270
6.38721 0.86288
6.39383 0.86303
6.40774 0.86287
6.42165 0.86288
6.43555 0.86306
6.44216 0.86320
6.45606 0.86304
6.46997 0.86304
6.48387 0.86321
6.49045 0.86335
6.50435 0.86318
6.51825 0.86317
6.53215 0.86333
6.53873 0.86346
6.55262 0.86328
6.56652 0.86326
6.58042 0.86341
6.58698 0.86353
6.60087 0.86334
6.61477 0.86331
6.62867 0.86345
6.63520 0.86357
6.64909 0.86337
6.66299 0.86333
6.67689 0.86346
6.68340 0.86358
6.69730 0.86336
6.71120 0.86332
6.72510 0.86343
6.73159 0.86355
6.74548 0.86332
6.75938 0.86326
6.77328 0.86337
6.77977 0.86347
6.79366 0.86324
6.80756 0.86317
6.82147 0.86326
6.82792 0.86336
6.84182 0.86311
6.85573 0.86303
6.86963 0.86312
6.87607 0.86321
6.88997 0.86295
6.90387 0.86286
6.91778 0.86294
6.92421 0.86303
6.93811 0.86276
6.95202 0.86265
6.96593 0.86271
6.97234 0.86280
6.98625 0.86251
7.00016 0.86240
7.01408 0.86245
7.02046 0.86253
7.03437 0.86224
7.04829 0.86211
7.06221 0.86215
7.06858 0.86222
7.08250 0.86192
7.09642 0.86178
7.11035 0.86180
7.11671 0.86187
7.13063 0.86155
7.14456 0.86140
7.15849 0.86142
7.16482 0.86148
7.17875 0.86115
7.19269 0.86099
7.20662 0.86100
7.21296 0.86105
7.22689 0.86071
7.24083 0.86054
7.25478 0.86053
7.26109 0.86058
7.27503 0.86023
7.28898 0.86005
7.30293 0.86003
7.30922 0.86008
7.32317 0.85972
7.33713 0.85952
7.35109 0.85949
7.35738 0.85953
7.37133 0.85916
7.38530 0.85895
7.39927 0.85891
7.40554 0.85895
7.41951 0.85856
7.43348 0.85834
7.44746 0.85829
7.45372 0.85833
7.46769 0.85793
7.48168 0.85770
7.49567 0.85764
7.50191 0.85767
7.51589 0.85726
7.52989 0.85702
7.54389 0.85695
7.55012 0.85697
7.56412 0.85656
7.57813 0.85631
7.59214 0.85623
7.59835 0.85624
7.61236 0.85581
7.62638 0.85555
7.64041 0.85546
7.64661 0.85547
7.66063 0.85503
7.67467 0.85477
7.68871 0.85467
7.69489 0.85467
7.70893 0.85423
7.72297 0.85395
7.73703 0.85384
7.74320 0.85384
7.75725 0.85339
7.77131 0.85310
7.78537 0.85298
7.79153 0.85298
7.80560 0.85251
7.81967 0.85222
7.83375 0.85209
7.83990 0.85208
7.85397 0.85161
7.86806 0.85131
7.88216 0.85117
7.88830 0.85116
7.90239 0.85068
7.91649 0.85037
7.93060 0.85022
7.93673 0.85021
7.95083 0.84972
7.96495 0.84940
7.97908 0.84925
7.98519 0.84923
7.99931 0.84873
8.01345 0.84841
8.02759 0.84825
8.03370 0.84823
8.04783 0.84773
8.06199 0.84739
8.07615 0.84723
8.08224 0.84721
8.09639 0.84670
8.11056 0.84636
8.12474 0.84619
8.13082 0.84617
8.14499 0.84565
8.15918 0.84530
8.17338 0.84512
8.17944 0.84510
8.19363 0.84458
8.20784 0.84422
8.22205 0.84404
8.22810 0.84401
8.24231 0.84349
8.25653 0.84313
8.27077 0.84294
8.27681 0.84292
8.29103 0.84239
8.30528 0.84202
8.31953 0.84183
8.32556 0.84180
8.33981 0.84127
8.35407 0.84090
8.36834 0.84071
8.37436 0.84067
8.38862 0.84013
8.40290 0.83977
8.41719 0.83957
8.42320 0.83954
8.43749 0.83899
8.45179 0.83862
8.46609 0.83842
8.47209 0.83839
8.48639 0.83785
8.50071 0.83747
8.51504 0.83727
8.52103 0.83724
8.53535 0.83669
8.54969 0.83632
8.56404 0.83611
8.57002 0.83608
8.58436 0.83553
8.59872 0.83516
8.61309 0.83495
8.61905 0.83492
8.63341 0.83437
8.64779 0.83400
8.66218 0.83379
8.66813 0.83376
8.68252 0.83321
8.69692 0.83284
8.71132 0.83264
8.71727 0.83261
8.73167 0.83206
8.74609 0.83168
8.76052 0.83148
8.76645 0.83144
8.78087 0.83090
8.79531 0.83052
8.80976 0.83032
8.81568 0.83029
8.83012 0.82975
8.84458 0.82938
8.85905 0.82918
8.86496 0.82915
8.87942 0.82861
8.89390 0.82824
8.90839 0.82804
8.91429 0.82801
8.92878 0.82747
8.94327 0.82711
8.95778 0.82692
8.96366 0.82689
8.97817 0.82635
8.99269 0.82599
9.00721 0.82581
9.01310 0.82578
9.02762 0.82525
9.04216 0.82489
9.05670 0.82471
9.06256 0.82468
9.07710 0.82416
9.09166 0.82380
9.10623 0.82363
9.11208 0.82360
9.12664 0.82308
9.14122 0.82274
9.15580 0.82256
9.16165 0.82254
9.17623 0.82203
9.19082 0.82169
9.20543 0.82152
9.21125 0.82150
9.22585 0.82100
9.24046 0.82066
9.25509 0.82050
9.26090 0.82049
9.27552 0.81999
9.29015 0.81966
9.30479 0.81951
9.31059 0.81949
9.32523 0.81900
9.33988 0.81868
9.35453 0.81854
9.36033 0.81853
9.37498 0.81804
9.38965 0.81773
9.40433 0.81759
9.41010 0.81759
9.42477 0.81711
9.43945 0.81681
9.45415 0.81668
9.45991 0.81668
9.47460 0.81621
9.48930 0.81591
9.50401 0.81579
9.50975 0.81579
9.52446 0.81533
9.53917 0.81505
9.55390 0.81494
9.55963 0.81494
9.57435 0.81449
9.58908 0.81422
9.60382 0.81412
9.60955 0.81413
9.62428 0.81369
9.63903 0.81343
9.65378 0.81334
9.65949 0.81335
9.67424 0.81292
9.68900 0.81267
9.70377 0.81259
9.70946 0.81260
9.72422 0.81218
9.73900 0.81194
9.75378 0.81187
9.75945 0.81189
9.77423 0.81148
9.78901 0.81125
9.80381 0.81120
9.80947 0.81122
9.82426 0.81082
9.83906 0.81060
9.85387 0.81056
9.85951 0.81059
9.87431 0.81020
9.88912 0.80999
9.90394 0.80996
9.90957 0.80999
9.92438 0.80962
9.93921 0.80942
9.95403 0.80940
9.95964 0.80944
9.97446 0.80907
9.98930 0.80889
10.00413 0.80888
10.00973 0.80892
10.02457 0.80857
10.03941 0.80840
10.05425 0.80840
10.05984 0.80845
10.07468 0.80811
10.08953 0.80795
10.10438 0.80797
10.10994 0.80802
10.12479 0.80769
10.13965 0.80754
10.15451 0.80757
10.16006 0.80763
10.17491 0.80731
10.18978 0.80718
10.20464 0.80722
10.21018 0.80728
10.22504 0.80698
10.23991 0.80685
10.25478 0.80691
10.26030 0.80698
10.27516 0.80668
10.29004 0.80657
10.30492 0.80664
10.31042 0.80671
10.32529 0.80643
10.34017 0.80633
10.35505 0.80641
10.36053 0.80648
10.37541 0.80622
10.39029 0.80613
10.40518 0.80622
10.41063 0.80630
10.42551 0.80605
10.44040 0.80597
10.45529 0.80607
10.46073 0.80616
10.47561 0.80592
10.49051 0.80585
10.50539 0.80597
10.51082 0.80606
10.52570 0.80583
10.54060 0.80578
10.55549 0.80590
10.56088 0.80599
10.57577 0.80578
10.59066 0.80574
10.60555 0.80588
10.61093 0.80597
10.62582 0.80577
10.64071 0.80574
10.65560 0.80589
10.66097 0.80599
10.67586 0.80579
10.69075 0.80578
10.70564 0.80594
10.71098 0.80604
10.72586 0.80586
10.74075 0.80585
10.75564 0.80603
10.76096 0.80613
10.77585 0.80596
10.79074 0.80597
10.80562 0.80615
10.81092 0.80626
10.82580 0.80610
10.84069 0.80611
10.85557 0.80631
10.86085 0.80642
10.87573 0.80627
10.89061 0.80629
10.90549 0.80650
10.91075 0.80661
10.92563 0.80647
10.94050 0.80650
10.95538 0.80672
10.96062 0.80683
10.97549 0.80670
10.99036 0.80674
11.00523 0.80697
11.01044 0.80709
11.02531 0.80696
11.04018 0.80702
11.05505 0.80725
11.06024 0.80737
11.07510 0.80726
11.08996 0.80732
11.10482 0.80756
11.10999 0.80769
11.12485 0.80758
11.13971 0.80765
11.15456 0.80789
11.15971 0.80802
11.17456 0.80792
11.18941 0.80800
11.20426 0.80825
11.20938 0.80838
11.22422 0.80829
11.23907 0.80837
11.25391 0.80863
11.25901 0.80877
11.27385 0.80868
11.28868 0.80877
11.30351 0.80904
11.30860 0.80917
11.32343 0.80909
11.33826 0.80918
11.35308 0.80946
11.35813 0.80959
11.37296 0.80951
11.38778 0.80962
11.40259 0.80990
11.40763 0.81003
11.42245 0.80996
11.43726 0.81007
11.45207 0.81035
11.45708 0.81049
11.47188 0.81042
11.48669 0.81053
11.50149 0.81082
11.50648 0.81096
11.52127 0.81089
11.53607 0.81101
11.55086 0.81130
11.55583 0.81143
11.57061 0.81137
11.58540 0.81149
11.60018 0.81179
11.60513 0.81192
11.61991 0.81186
11.63469 0.81198
11.64946 0.81228
11.65437 0.81242
11.66914 0.81236
11.68391 0.81248
11.69867 0.81278
11.70358 0.81292
11.71834 0.81286
11.73310 0.81299
11.74785 0.81328
11.75273 0.81342
11.76748 0.81337
11.78223 0.81349
11.79697 0.81379
11.80182 0.81392
11.81657 0.81387
11.83131 0.81399
11.84605 0.81429
11.85088 0.81443
11.86561 0.81437
11.88034 0.81450
11.89507 0.81480
11.89987 0.81493
11.91460 0.81488
11.92932 0.81500
11.94404 0.81529
11.94882 0.81543
11.96354 0.81537
11.97825 0.81549
11.99296 0.81578
11.99772 0.81592
12.01243 0.81586
12.02714 0.81598
12.04183 0.81627
12.04657 0.81640
12.06127 0.81634
12.07597 0.81645
12.09066 0.81674
12.09537 0.81687
12.11007 0.81680
12.12476 0.81691
12.13944 0.81719
12.14414 0.81732
12.15882 0.81725
12.17350 0.81736
12.18818 0.81764
12.19285 0.81777
12.20752 0.81769
12.22219 0.81779
12.23686 0.81807
12.24151 0.81819
12.25617 0.81811
12.27084 0.81821
12.28550 0.81848
12.29013 0.81861
12.30479 0.81852
12.31945 0.81861
12.33410 0.81888
12.33871 0.81899
12.35336 0.81890
12.36801 0.81898
12.38266 0.81924
12.38724 0.81936
12.40189 0.81926
12.41654 0.81934
12.43118 0.81959
12.43574 0.81971
12.45038 0.81960
12.46502 0.81967
12.47965 0.81992
12.48419 0.82003
12.49882 0.81991
12.51346 0.81997
12.52809 0.82021
12.53261 0.82032
12.54724 0.82020
12.56187 0.82025
12.57649 0.82048
12.58099 0.82059
12.59562 0.82046
12.61024 0.82050
12.62487 0.82072
12.62934 0.82082
12.64396 0.82069
12.65858 0.82072
12.67320 0.82093
12.67766 0.82103
12.69227 0.82088
12.70689 0.82091
12.72151 0.82111
12.72594 0.82121
12.74056 0.82105
12.75517 0.82107
12.76978 0.82126
12.77420 0.82135
12.78881 0.82118
12.80343 0.82119
12.81803 0.82137
12.82243 0.82146
12.83704 0.82128
12.85165 0.82128
12.86626 0.82145
12.87063 0.82154
12.88524 0.82135
12.89985 0.82134
12.91446 0.82150
12.91881 0.82158
12.93342 0.82138
12.94803 0.82135
12.96264 0.82150
12.96697 0.82158
12.98158 0.82137
12.99619 0.82133
13.01080 0.82147
13.01512 0.82155
13.02972 0.82133
13.04433 0.82128
13.05894 0.82140
13.06324 0.82148
13.07785 0.82124
13.09246 0.82118
13.10707 0.82130
13.11135 0.82136
13.12596 0.82112
13.14058 0.82105
13.15519 0.82115
13.15945 0.82121
13.17406 0.82095
13.18868 0.82087
13.20329 0.82096
13.20754 0.82102
13.22216 0.82075
13.23678 0.82066
13.25140 0.82074
13.25562 0.82080
13.27024 0.82051
13.28487 0.82041
13.29949 0.82048
13.30370 0.82053
13.31832 0.82023
13.33295 0.82012
13.34758 0.82017
13.35177 0.82022
13.36640 0.81991
13.38103 0.81978
13.39567 0.81983
13.39984 0.81987
13.41447 0.81955
13.42912 0.81941
13.44376 0.81944
13.44791 0.81948
13.46255 0.81915
13.47720 0.81900
13.49186 0.81902
13.49599 0.81906
13.51064 0.81872
13.52529 0.81855
13.53996 0.81855
13.54408 0.81859
13.55873 0.81823
13.57340 0.81805
13.58807 0.81805
13.59217 0.81808
13.60683 0.81772
13.62151 0.81753
13.63618 0.81751
13.64027 0.81754
13.65494 0.81716
13.66962 0.81696
13.68431 0.81693
13.68839 0.81695
13.70307 0.81656
13.71777 0.81635
13.73247 0.81631
13.73651 0.81633
13.75121 0.81593
13.76592 0.81570
13.78063 0.81565
13.78466 0.81567
13.79937 0.81526
13.81409 0.81502
13.82881 0.81496
13.83283 0.81497
13.84755 0.81455
13.86228 0.81430
13.87701 0.81423
13.88101 0.81424
13.89574 0.81381
13.91049 0.81355
13.92524 0.81347
13.92922 0.81348
13.94397 0.81303
13.95873 0.81276
13.97349 0.81267
13.97747 0.81268
13.99223 0.81222
14.00700 0.81194
14.02178 0.81184
14.02573 0.81184
14.04050 0.81138
14.05529 0.81109
14.07009 0.81098
14.07402 0.81098
14.08881 0.81051
14.10362 0.81021
14.11843 0.81009
14.12235 0.81009
14.13716 0.80960
14.15198 0.80930
14.16681 0.80917
14.17071 0.80917
14.18553 0.80867
14.20037 0.80836
14.21522 0.80822
14.21911 0.80822
14.23395 0.80772
14.24881 0.80739
14.26367 0.80725
14.26754 0.80724
14.28240 0.80673
14.29727 0.80640
14.31215 0.80625
14.31601 0.80624
14.33089 0.80572
14.34578 0.80539
14.36068 0.80523
14.36453 0.80522
14.37942 0.80469
14.39433 0.80435
14.40925 0.80418
14.41308 0.80417
14.42799 0.80364
14.44292 0.80329
14.45786 0.80312
14.46167 0.80311
14.47660 0.80257
14.49155 0.80222
14.50651 0.80204
14.51031 0.80202
14.52526 0.80148
14.54023 0.80112
14.55521 0.80094
14.55900 0.80092
14.57397 0.80038
14.58896 0.80001
14.60396 0.79983
14.60774 0.79981
14.62273 0.79926
14.63774 0.79889
14.65276 0.79870
14.65651 0.79868
14.67153 0.79813
14.68656 0.79776
14.70160 0.79757
14.70534 0.79755
14.72038 0.79699
14.73543 0.79662
14.75049 0.79643
14.75422 0.79641
14.76928 0.79585
14.78436 0.79547
14.79944 0.79527
14.80315 0.79525
14.81823 0.79469
14.83333 0.79431
14.84843 0.79411
14.85213 0.79409
14.86723 0.79353
14.88235 0.79315
14.89748 0.79295
14.90116 0.79293
14.91628 0.79237
14.93142 0.79199
14.94658 0.79179
14.95024 0.79177
14.96539 0.79121
14.98055 0.79083
14.99573 0.79063
14.99937 0.79061
15.01454 0.79005
15.02973 0.78967
15.04492 0.78947
15.04856 0.78945
15.06375 0.78889
15.07896 0.78852
15.09418 0.78832
15.09780 0.78830
15.11301 0.78774
15.12824 0.78737
15.14348 0.78718
15.14709 0.78716
15.16232 0.78660
15.17758 0.78623
15.19284 0.78604
15.19642 0.78602
15.21168 0.78547
15.22695 0.78510
15.24224 0.78492
15.24582 0.78490
15.26110 0.78435
15.27639 0.78399
15.29170 0.78380
15.29526 0.78379
15.31056 0.78324
15.32587 0.78288
15.34120 0.78271
15.34475 0.78269
15.36007 0.78215
15.37541 0.78180
15.39076 0.78162
15.39429 0.78161
15.40963 0.78108
15.42499 0.78073
15.44036 0.78056
15.44387 0.78055
15.45924 0.78003
15.47462 0.77968
15.49001 0.77952
15.49351 0.77951
15.50890 0.77899
15.52430 0.77866
15.53971 0.77850
15.54319 0.77850
15.55860 0.77798
15.57402 0.77765
15.58945 0.77751
15.59292 0.77750
15.60834 0.77700
15.62379 0.77668
15.63924 0.77654
15.64268 0.77654
15.65813 0.77604
15.67359 0.77572
15.68906 0.77560
15.69249 0.77559
15.70795 0.77510
15.72343 0.77480
15.73892 0.77468
15.74234 0.77468
15.75782 0.77420
15.77332 0.77391
15.78882 0.77380
15.79222 0.77380
15.80773 0.77333
15.82324 0.77304
15.83876 0.77295
15.84214 0.77295
15.85766 0.77249
15.87320 0.77222
15.88874 0.77213
15.89210 0.77214
15.90764 0.77169
15.92319 0.77142
15.93874 0.77134
15.94209 0.77135
